# Frequency(THz) Frequency(cm^-1) GLU31-PRO71 GLU31-GLY70 PRO33-GLY67 GLU31-GLY72 GLU49-TYR77 ARG48-TYR77 GLU31-GLY67 HIS36-LYS68
0.0000 0.0000 0.0000 0.2121 0.0548 1.0000 0.9475 1.0000 1.0000 0.9022
0.0100 0.3339 0.0027 0.2132 0.0573 0.9990 0.9480 0.9996 0.9994 0.9014
0.0200 0.6678 0.0053 0.2143 0.0599 0.9980 0.9485 0.9992 0.9988 0.9006
0.0300 1.0017 0.0080 0.2154 0.0624 0.9970 0.9490 0.9989 0.9982 0.8997
0.0400 1.3356 0.0106 0.2165 0.0650 0.9959 0.9495 0.9985 0.9977 0.8989
0.0501 1.6695 0.0133 0.2177 0.0676 0.9949 0.9500 0.9981 0.9971 0.8981
0.0601 2.0034 0.0211 0.2210 0.0751 0.9919 0.9514 0.9970 0.9953 0.8956
0.0701 2.3373 0.0288 0.2243 0.0826 0.9888 0.9528 0.9959 0.9936 0.8931
0.0801 2.6712 0.0366 0.2276 0.0901 0.9858 0.9542 0.9948 0.9918 0.8905
0.0901 3.0050 0.0444 0.2309 0.0976 0.9828 0.9556 0.9937 0.9901 0.8880
0.1001 3.3389 0.0522 0.2342 0.1052 0.9797 0.9570 0.9925 0.9883 0.8855
0.1101 3.6728 0.0645 0.2397 0.1171 0.9747 0.9590 0.9907 0.9855 0.8812
0.1201 4.0067 0.0769 0.2452 0.1289 0.9696 0.9611 0.9889 0.9826 0.8769
0.1301 4.3406 0.0892 0.2507 0.1408 0.9646 0.9631 0.9871 0.9797 0.8726
0.1401 4.6745 0.1016 0.2562 0.1527 0.9595 0.9652 0.9853 0.9768 0.8683
0.1502 5.0084 0.1140 0.2617 0.1647 0.9545 0.9672 0.9834 0.9740 0.8639
0.1602 5.3423 0.1301 0.2693 0.1801 0.9475 0.9695 0.9810 0.9700 0.8577
0.1702 5.6762 0.1463 0.2769 0.1955 0.9404 0.9719 0.9785 0.9661 0.8515
0.1802 6.0101 0.1624 0.2846 0.2109 0.9334 0.9742 0.9760 0.9621 0.8453
0.1902 6.3440 0.1785 0.2922 0.2264 0.9264 0.9766 0.9736 0.9582 0.8390
0.2002 6.6779 0.1947 0.2999 0.2418 0.9194 0.9789 0.9711 0.9542 0.8328
0.2102 7.0118 0.2136 0.3096 0.2598 0.9105 0.9811 0.9681 0.9493 0.8246
0.2202 7.3457 0.2324 0.3192 0.2777 0.9016 0.9832 0.9651 0.9444 0.8163
0.2302 7.6796 0.2513 0.3289 0.2956 0.8927 0.9854 0.9621 0.9395 0.8081
0.2402 8.0135 0.2702 0.3386 0.3135 0.8838 0.9876 0.9591 0.9345 0.7999
0.2503 8.3473 0.2891 0.3483 0.3314 0.8749 0.9898 0.9561 0.9296 0.7916
0.2603 8.6812 0.3095 0.3599 0.3507 0.8643 0.9913 0.9527 0.9237 0.7815
0.2703 9.0151 0.3300 0.3715 0.3699 0.8537 0.9929 0.9494 0.9179 0.7713
0.2803 9.3490 0.3505 0.3830 0.3892 0.8431 0.9944 0.9460 0.9121 0.7611
0.2903 9.6829 0.3709 0.3946 0.4084 0.8324 0.9960 0.9426 0.9063 0.7510
0.3003 10.0168 0.3914 0.4062 0.4277 0.8218 0.9975 0.9392 0.9004 0.7407
0.3103 10.3507 0.4123 0.4194 0.4472 0.8096 0.9980 0.9356 0.8938 0.7288
0.3203 10.6846 0.4332 0.4326 0.4666 0.7975 0.9985 0.9321 0.8872 0.7169
0.3303 11.0185 0.4541 0.4458 0.4861 0.7853 0.9990 0.9285 0.8806 0.7050
0.3403 11.3524 0.4750 0.4590 0.5056 0.7732 0.9995 0.9249 0.8740 0.6931
0.3504 11.6863 0.4959 0.4723 0.5250 0.7610 1.0000 0.9213 0.8674 0.6811
0.3604 12.0202 0.5162 0.4868 0.5437 0.7476 0.9991 0.9178 0.8602 0.6679
0.3704 12.3541 0.5364 0.5013 0.5624 0.7342 0.9981 0.9142 0.8529 0.6547
0.3804 12.6880 0.5567 0.5157 0.5811 0.7209 0.9972 0.9106 0.8457 0.6414
0.3904 13.0219 0.5770 0.5302 0.5998 0.7075 0.9963 0.9071 0.8384 0.6282
0.4004 13.3558 0.5972 0.5448 0.6184 0.6941 0.9953 0.9035 0.8312 0.6150
0.4104 13.6896 0.6159 0.5601 0.6356 0.6798 0.9928 0.9002 0.8234 0.6011
0.4204 14.0235 0.6347 0.5754 0.6527 0.6655 0.9902 0.8968 0.8157 0.5872
0.4304 14.3574 0.6534 0.5907 0.6698 0.6513 0.9876 0.8935 0.8079 0.5733
0.4404 14.6913 0.6722 0.6060 0.6869 0.6370 0.9851 0.8901 0.8002 0.5595
0.4505 15.0252 0.6908 0.6213 0.7040 0.6227 0.9824 0.8868 0.7924 0.5456
0.4605 15.3591 0.7074 0.6368 0.7190 0.6080 0.9781 0.8839 0.7843 0.5319
0.4705 15.6930 0.7239 0.6523 0.7340 0.5932 0.9737 0.8809 0.7762 0.5183
0.4805 16.0269 0.7405 0.6679 0.7490 0.5785 0.9694 0.8780 0.7681 0.5046
0.4905 16.3608 0.7570 0.6834 0.7640 0.5637 0.9651 0.8751 0.7600 0.4909
0.5005 16.6947 0.7734 0.6989 0.7789 0.5490 0.9606 0.8721 0.7519 0.4773
0.5105 17.0286 0.7874 0.7140 0.7915 0.5342 0.9545 0.8697 0.7436 0.4649
0.5205 17.3625 0.8013 0.7291 0.8041 0.5194 0.9484 0.8673 0.7353 0.4524
0.5305 17.6964 0.8152 0.7442 0.8167 0.5046 0.9423 0.8649 0.7270 0.4400
0.5405 18.0303 0.8291 0.7593 0.8293 0.4898 0.9363 0.8624 0.7187 0.4275
0.5506 18.3642 0.8429 0.7743 0.8417 0.4750 0.9301 0.8600 0.7103 0.4152
0.5606 18.6981 0.8540 0.7883 0.8518 0.4606 0.9223 0.8581 0.7020 0.4050
0.5706 19.0320 0.8651 0.8023 0.8620 0.4462 0.9146 0.8562 0.6936 0.3949
0.5806 19.3658 0.8762 0.8162 0.8721 0.4318 0.9069 0.8543 0.6852 0.3847
0.5906 19.6997 0.8873 0.8302 0.8822 0.4174 0.8992 0.8524 0.6769 0.3745
0.6006 20.0336 0.8983 0.8440 0.8922 0.4030 0.8913 0.8505 0.6685 0.3645
0.6106 20.3675 0.9066 0.8561 0.8999 0.3894 0.8822 0.8490 0.6602 0.3576
0.6206 20.7014 0.9150 0.8682 0.9077 0.3757 0.8730 0.8475 0.6519 0.3506
0.6306 21.0353 0.9234 0.8803 0.9155 0.3621 0.8639 0.8460 0.6437 0.3437
0.6406 21.3692 0.9317 0.8924 0.9232 0.3485 0.8547 0.8446 0.6354 0.3368
0.6507 21.7031 0.9399 0.9043 0.9309 0.3349 0.8455 0.8431 0.6271 0.3301
0.6607 22.0370 0.9457 0.9139 0.9365 0.3223 0.8352 0.8418 0.6190 0.3272
0.6707 22.3709 0.9516 0.9235 0.9422 0.3098 0.8249 0.8406 0.6109 0.3243
0.6807 22.7048 0.9574 0.9331 0.9479 0.2972 0.8145 0.8393 0.6028 0.3214
0.6907 23.0387 0.9632 0.9427 0.9536 0.2847 0.8042 0.8381 0.5947 0.3185
0.7007 23.3726 0.9689 0.9521 0.9591 0.2722 0.7939 0.8368 0.5867 0.3160
0.7107 23.7065 0.9726 0.9586 0.9630 0.2610 0.7827 0.8355 0.5789 0.3177
0.7207 24.0404 0.9762 0.9652 0.9669 0.2498 0.7715 0.8342 0.5711 0.3193
0.7307 24.3743 0.9799 0.9717 0.9708 0.2386 0.7603 0.8329 0.5633 0.3210
0.7407 24.7081 0.9836 0.9783 0.9747 0.2274 0.7491 0.8315 0.5555 0.3227
0.7508 25.0420 0.9871 0.9846 0.9785 0.2163 0.7378 0.8302 0.5477 0.3247
0.7608 25.3759 0.9891 0.9877 0.9810 0.2066 0.7260 0.8285 0.5403 0.3311
0.7708 25.7098 0.9910 0.9909 0.9834 0.1968 0.7143 0.8268 0.5329 0.3375
0.7808 26.0437 0.9929 0.9940 0.9859 0.1871 0.7025 0.8250 0.5255 0.3439
0.7908 26.3776 0.9949 0.9971 0.9884 0.1774 0.6907 0.8233 0.5181 0.3503
0.8008 26.7115 0.9967 1.0000 0.9908 0.1678 0.6789 0.8215 0.5107 0.3571
0.8108 27.0454 0.9974 0.9995 0.9921 0.1596 0.6668 0.8191 0.5037 0.3679
0.8208 27.3793 0.9980 0.9991 0.9935 0.1514 0.6546 0.8166 0.4967 0.3788
0.8308 27.7132 0.9987 0.9986 0.9948 0.1432 0.6425 0.8141 0.4898 0.3896
0.8408 28.0471 0.9994 0.9982 0.9962 0.1350 0.6304 0.8117 0.4828 0.4005
0.8509 28.3810 1.0000 0.9974 0.9975 0.1269 0.6183 0.8091 0.4759 0.4117
0.8609 28.7149 0.9998 0.9934 0.9980 0.1202 0.6061 0.8056 0.4694 0.4263
0.8709 29.0488 0.9997 0.9894 0.9985 0.1135 0.5939 0.8021 0.4628 0.4409
0.8809 29.3827 0.9995 0.9854 0.9990 0.1068 0.5818 0.7986 0.4563 0.4556
0.8909 29.7166 0.9993 0.9814 0.9995 0.1001 0.5696 0.7951 0.4498 0.4702
0.9009 30.0505 0.9991 0.9771 1.0000 0.0935 0.5574 0.7915 0.4434 0.4851
0.9109 30.3843 0.9985 0.9699 0.9999 0.0882 0.5454 0.7867 0.4374 0.5025
0.9209 30.7182 0.9979 0.9626 0.9997 0.0829 0.5333 0.7819 0.4313 0.5200
0.9309 31.0521 0.9973 0.9553 0.9996 0.0775 0.5213 0.7771 0.4253 0.5374
0.9409 31.3860 0.9967 0.9480 0.9994 0.0722 0.5092 0.7723 0.4193 0.5548
0.9510 31.7199 0.9961 0.9405 0.9993 0.0670 0.4972 0.7674 0.4133 0.5723
0.9610 32.0538 0.9954 0.9303 0.9986 0.0629 0.4855 0.7612 0.4078 0.5912
0.9710 32.3877 0.9946 0.9202 0.9980 0.0588 0.4738 0.7550 0.4023 0.6101
0.9810 32.7216 0.9939 0.9101 0.9973 0.0548 0.4620 0.7488 0.3967 0.6289
0.9910 33.0555 0.9931 0.8999 0.9967 0.0507 0.4503 0.7426 0.3912 0.6478
1.0010 33.3894 0.9924 0.8896 0.9960 0.0467 0.4386 0.7363 0.3857 0.6667
1.0110 33.7233 0.9918 0.8772 0.9950 0.0436 0.4274 0.7287 0.3806 0.6856
1.0210 34.0572 0.9911 0.8648 0.9940 0.0406 0.4161 0.7212 0.3756 0.7044
1.0310 34.3911 0.9905 0.8524 0.9929 0.0376 0.4049 0.7136 0.3705 0.7233
1.0410 34.7250 0.9899 0.8400 0.9919 0.0345 0.3937 0.7060 0.3654 0.7422
1.0511 35.0589 0.9893 0.8274 0.9908 0.0316 0.3825 0.6983 0.3604 0.7609
1.0611 35.3928 0.9889 0.8134 0.9894 0.0294 0.3719 0.6895 0.3557 0.7783
1.0711 35.7266 0.9885 0.7993 0.9881 0.0272 0.3613 0.6806 0.3511 0.7956
1.0811 36.0605 0.9881 0.7853 0.9867 0.0250 0.3507 0.6718 0.3464 0.8130
1.0911 36.3944 0.9877 0.7713 0.9853 0.0228 0.3400 0.6629 0.3417 0.8304
1.1011 36.7283 0.9873 0.7572 0.9839 0.0207 0.3295 0.6540 0.3371 0.8475
1.1111 37.0622 0.9872 0.7422 0.9822 0.0192 0.3196 0.6441 0.3329 0.8619
1.1211 37.3961 0.9871 0.7272 0.9806 0.0176 0.3098 0.6342 0.3286 0.8764
1.1311 37.7300 0.9871 0.7123 0.9789 0.0161 0.2999 0.6243 0.3243 0.8909
1.1411 38.0639 0.9870 0.6973 0.9772 0.0146 0.2900 0.6144 0.3200 0.9054
1.1512 38.3978 0.9869 0.6823 0.9756 0.0131 0.2803 0.6045 0.3158 0.9195
1.1612 38.7317 0.9871 0.6670 0.9736 0.0121 0.2713 0.5938 0.3119 0.9299
1.1712 39.0656 0.9873 0.6518 0.9717 0.0111 0.2622 0.5832 0.3079 0.9404
1.1812 39.3995 0.9875 0.6365 0.9698 0.0101 0.2532 0.5726 0.3040 0.9508
1.1912 39.7334 0.9877 0.6212 0.9679 0.0090 0.2442 0.5619 0.3000 0.9613
1.2012 40.0673 0.9880 0.6060 0.9660 0.0081 0.2353 0.5512 0.2961 0.9712
1.2112 40.4012 0.9884 0.5910 0.9638 0.0074 0.2272 0.5402 0.2925 0.9768
1.2212 40.7351 0.9888 0.5760 0.9617 0.0067 0.2191 0.5291 0.2888 0.9824
1.2312 41.0689 0.9893 0.5611 0.9596 0.0061 0.2110 0.5181 0.2851 0.9880
1.2412 41.4028 0.9897 0.5461 0.9574 0.0054 0.2030 0.5070 0.2815 0.9936
1.2513 41.7367 0.9901 0.5312 0.9553 0.0048 0.1950 0.4960 0.2779 0.9985
1.2613 42.0706 0.9906 0.5169 0.9529 0.0044 0.1879 0.4849 0.2744 0.9988
1.2713 42.4045 0.9911 0.5027 0.9506 0.0040 0.1808 0.4737 0.2710 0.9991
1.2813 42.7384 0.9916 0.4884 0.9482 0.0035 0.1737 0.4626 0.2676 0.9994
1.2913 43.0723 0.9921 0.4742 0.9459 0.0031 0.1666 0.4515 0.2641 0.9997
1.3013 43.4062 0.9926 0.4600 0.9435 0.0027 0.1597 0.4404 0.2607 0.9993
1.3113 43.7401 0.9931 0.4469 0.9410 0.0025 0.1536 0.4295 0.2575 0.9943
1.3213 44.0740 0.9935 0.4337 0.9384 0.0022 0.1475 0.4186 0.2543 0.9893
1.3313 44.4079 0.9939 0.4205 0.9359 0.0020 0.1414 0.4078 0.2510 0.9843
1.3413 44.7418 0.9943 0.4073 0.9333 0.0018 0.1354 0.3969 0.2478 0.9793
1.3514 45.0757 0.9946 0.3943 0.9308 0.0015 0.1294 0.3861 0.2446 0.9737
1.3614 45.4096 0.9947 0.3824 0.9280 0.0014 0.1244 0.3757 0.2415 0.9638
1.3714 45.7435 0.9948 0.3705 0.9252 0.0012 0.1194 0.3654 0.2384 0.9538
1.3814 46.0774 0.9949 0.3587 0.9224 0.0011 0.1143 0.3550 0.2353 0.9439
1.3914 46.4113 0.9950 0.3468 0.9196 0.0009 0.1093 0.3447 0.2322 0.9340
1.4014 46.7451 0.9950 0.3351 0.9168 0.0008 0.1044 0.3344 0.2291 0.9235
1.4114 47.0790 0.9946 0.3246 0.9137 0.0007 0.1003 0.3248 0.2262 0.9093
1.4214 47.4129 0.9941 0.3141 0.9107 0.0007 0.0963 0.3152 0.2232 0.8952
1.4314 47.7468 0.9936 0.3036 0.9076 0.0006 0.0923 0.3055 0.2202 0.8811
1.4414 48.0807 0.9932 0.2931 0.9045 0.0005 0.0883 0.2959 0.2172 0.8669
1.4515 48.4146 0.9926 0.2828 0.9014 0.0004 0.0844 0.2864 0.2143 0.8523
1.4615 48.7485 0.9913 0.2736 0.8979 0.0004 0.0813 0.2777 0.2114 0.8350
1.4715 49.0824 0.9900 0.2645 0.8944 0.0003 0.0782 0.2690 0.2085 0.8176
1.4815 49.4163 0.9887 0.2554 0.8910 0.0003 0.0752 0.2602 0.2056 0.8002
1.4915 49.7502 0.9875 0.2463 0.8875 0.0003 0.0721 0.2515 0.2028 0.7829
1.5015 50.0841 0.9860 0.2374 0.8840 0.0002 0.0692 0.2429 0.1999 0.7652
1.5115 50.4180 0.9837 0.2296 0.8800 0.0002 0.0670 0.2352 0.1971 0.7457
1.5215 50.7519 0.9814 0.2218 0.8761 0.0002 0.0648 0.2274 0.1943 0.7263
1.5315 51.0858 0.9790 0.2140 0.8721 0.0002 0.0627 0.2197 0.1915 0.7068
1.5415 51.4197 0.9767 0.2062 0.8682 0.0001 0.0605 0.2120 0.1886 0.6873
1.5516 51.7536 0.9742 0.1986 0.8641 0.0001 0.0585 0.2044 0.1858 0.6677
1.5616 52.0874 0.9705 0.1921 0.8595 0.0001 0.0571 0.1977 0.1831 0.6473
1.5716 52.4213 0.9669 0.1855 0.8549 0.0001 0.0558 0.1909 0.1804 0.6269
1.5816 52.7552 0.9633 0.1789 0.8503 0.0001 0.0544 0.1842 0.1776 0.6065
1.5916 53.0891 0.9597 0.1723 0.8458 0.0001 0.0531 0.1775 0.1749 0.5862
1.6016 53.4230 0.9559 0.1659 0.8411 0.0001 0.0518 0.1709 0.1721 0.5658
1.6116 53.7569 0.9508 0.1604 0.8357 0.0001 0.0512 0.1652 0.1695 0.5456
1.6216 54.0908 0.9458 0.1549 0.8304 0.0000 0.0506 0.1595 0.1668 0.5253
1.6316 54.4247 0.9407 0.1493 0.8251 0.0000 0.0500 0.1538 0.1641 0.5051
1.6416 54.7586 0.9357 0.1438 0.8197 0.0000 0.0493 0.1481 0.1614 0.4849
1.6517 55.0925 0.9304 0.1385 0.8143 0.0000 0.0488 0.1426 0.1587 0.4648
1.6617 55.4264 0.9237 0.1338 0.8081 0.0000 0.0488 0.1379 0.1561 0.4457
1.6717 55.7603 0.9171 0.1292 0.8019 0.0000 0.0489 0.1332 0.1535 0.4266
1.6817 56.0942 0.9105 0.1246 0.7957 0.0000 0.0489 0.1284 0.1509 0.4075
1.6917 56.4281 0.9039 0.1200 0.7896 0.0000 0.0489 0.1237 0.1483 0.3884
1.7017 56.7620 0.8970 0.1155 0.7832 0.0000 0.0490 0.1192 0.1457 0.3696
1.7117 57.0959 0.8888 0.1117 0.7762 0.0000 0.0496 0.1153 0.1431 0.3524
1.7217 57.4297 0.8806 0.1078 0.7691 0.0000 0.0501 0.1115 0.1406 0.3351
1.7317 57.7636 0.8724 0.1040 0.7620 0.0000 0.0507 0.1077 0.1380 0.3179
1.7417 58.0975 0.8642 0.1001 0.7550 0.0000 0.0512 0.1039 0.1355 0.3007
1.7518 58.4314 0.8557 0.0964 0.7477 0.0000 0.0519 0.1003 0.1329 0.2838
1.7618 58.7653 0.8460 0.0932 0.7398 0.0000 0.0529 0.0973 0.1305 0.2689
1.7718 59.0992 0.8362 0.0900 0.7318 0.0000 0.0539 0.0943 0.1280 0.2540
1.7818 59.4331 0.8265 0.0868 0.7239 0.0000 0.0549 0.0913 0.1255 0.2391
1.7918 59.7670 0.8168 0.0835 0.7159 0.0000 0.0559 0.0884 0.1231 0.2243
1.8018 60.1009 0.8068 0.0804 0.7078 0.0000 0.0570 0.0855 0.1206 0.2098
1.8118 60.4348 0.7956 0.0777 0.6991 0.0000 0.0584 0.0833 0.1183 0.1975
1.8218 60.7687 0.7845 0.0750 0.6903 0.0000 0.0598 0.0810 0.1159 0.1852
1.8318 61.1026 0.7734 0.0723 0.6815 0.0000 0.0612 0.0788 0.1135 0.1729
1.8418 61.4365 0.7623 0.0696 0.6728 0.0000 0.0626 0.0766 0.1112 0.1606
1.8519 61.7704 0.7509 0.0670 0.6639 0.0000 0.0641 0.0744 0.1088 0.1488
1.8619 62.1043 0.7386 0.0647 0.6545 0.0000 0.0658 0.0729 0.1066 0.1391
1.8719 62.4382 0.7263 0.0624 0.6450 0.0000 0.0675 0.0713 0.1043 0.1294
1.8819 62.7721 0.7140 0.0601 0.6356 0.0000 0.0692 0.0697 0.1020 0.1197
1.8919 63.1059 0.7017 0.0578 0.6262 0.0000 0.0709 0.0681 0.0998 0.1100
1.9019 63.4398 0.6893 0.0556 0.6167 0.0000 0.0726 0.0666 0.0976 0.1007
1.9119 63.7737 0.6761 0.0537 0.6068 0.0000 0.0746 0.0656 0.0954 0.0934
1.9219 64.1076 0.6630 0.0518 0.5969 0.0000 0.0766 0.0645 0.0933 0.0862
1.9319 64.4415 0.6498 0.0498 0.5870 0.0000 0.0785 0.0635 0.0911 0.0789
1.9419 64.7754 0.6366 0.0479 0.5771 0.0000 0.0805 0.0625 0.0890 0.0716
1.9520 65.1093 0.6234 0.0460 0.5672 0.0000 0.0825 0.0615 0.0869 0.0647
1.9620 65.4432 0.6097 0.0444 0.5570 0.0000 0.0846 0.0609 0.0849 0.0595
1.9720 65.7771 0.5960 0.0428 0.5469 0.0000 0.0868 0.0604 0.0829 0.0543
1.9820 66.1110 0.5824 0.0411 0.5368 0.0000 0.0889 0.0598 0.0809 0.0492
1.9920 66.4449 0.5687 0.0395 0.5267 0.0000 0.0910 0.0592 0.0789 0.0440
2.0020 66.7788 0.5550 0.0379 0.5166 0.0000 0.0932 0.0587 0.0769 0.0391
2.0120 67.1127 0.5412 0.0366 0.5066 0.0000 0.0955 0.0585 0.0751 0.0357
2.0220 67.4466 0.5273 0.0352 0.4965 0.0000 0.0978 0.0583 0.0732 0.0322
2.0320 67.7805 0.5135 0.0338 0.4865 0.0000 0.1001 0.0581 0.0713 0.0287
2.0420 68.1144 0.4997 0.0325 0.4764 0.0000 0.1023 0.0579 0.0695 0.0253
2.0521 68.4482 0.4859 0.0311 0.4664 0.0000 0.1046 0.0578 0.0677 0.0221
2.0621 68.7821 0.4723 0.0300 0.4567 0.0000 0.1070 0.0579 0.0660 0.0199
2.0721 69.1160 0.4587 0.0289 0.4470 0.0000 0.1094 0.0580 0.0642 0.0178
2.0821 69.4499 0.4452 0.0278 0.4373 0.0000 0.1117 0.0581 0.0625 0.0156
2.0921 69.7838 0.4316 0.0267 0.4275 0.0000 0.1141 0.0582 0.0608 0.0134
2.1021 70.1177 0.4181 0.0256 0.4179 0.0000 0.1164 0.0583 0.0591 0.0115
2.1121 70.4516 0.4051 0.0248 0.4088 0.0000 0.1188 0.0586 0.0576 0.0103
2.1221 70.7855 0.3921 0.0239 0.3996 0.0000 0.1212 0.0589 0.0560 0.0090
2.1321 71.1194 0.3790 0.0230 0.3905 0.0000 0.1236 0.0593 0.0545 0.0078
2.1421 71.4533 0.3660 0.0221 0.3813 0.0000 0.1260 0.0596 0.0529 0.0066
2.1522 71.7872 0.3532 0.0213 0.3724 0.0000 0.1284 0.0599 0.0514 0.0054
2.1622 72.1211 0.3410 0.0207 0.3640 0.0000 0.1307 0.0604 0.0500 0.0048
2.1722 72.4550 0.3289 0.0200 0.3556 0.0000 0.1331 0.0609 0.0486 0.0042
2.1822 72.7889 0.3167 0.0194 0.3472 0.0000 0.1355 0.0613 0.0472 0.0035
2.1922 73.1228 0.3046 0.0188 0.3389 0.0000 0.1378 0.0618 0.0458 0.0029
2.2022 73.4567 0.2927 0.0182 0.3307 0.0000 0.1402 0.0623 0.0444 0.0023
2.2122 73.7906 0.2816 0.0178 0.3232 0.0000 0.1424 0.0629 0.0432 0.0021
2.2222 74.1244 0.2705 0.0174 0.3158 0.0000 0.1447 0.0634 0.0420 0.0018
2.2322 74.4583 0.2595 0.0170 0.3083 0.0000 0.1470 0.0640 0.0407 0.0015
2.2422 74.7922 0.2484 0.0166 0.3009 0.0000 0.1493 0.0645 0.0395 0.0012
2.2523 75.1261 0.2377 0.0163 0.2937 0.0000 0.1515 0.0651 0.0383 0.0009
2.2623 75.4600 0.2278 0.0161 0.2872 0.0000 0.1536 0.0657 0.0372 0.0008
2.2723 75.7939 0.2180 0.0160 0.2808 0.0000 0.1558 0.0663 0.0361 0.0007
2.2823 76.1278 0.2082 0.0158 0.2743 0.0000 0.1579 0.0669 0.0350 0.0006
2.2923 76.4617 0.1984 0.0157 0.2679 0.0000 0.1600 0.0675 0.0339 0.0005
2.3023 76.7956 0.1889 0.0156 0.2616 0.0000 0.1621 0.0681 0.0328 0.0004
2.3123 77.1295 0.1805 0.0157 0.2562 0.0000 0.1641 0.0687 0.0319 0.0003
2.3223 77.4634 0.1720 0.0158 0.2508 0.0000 0.1660 0.0694 0.0309 0.0003
2.3323 77.7973 0.1635 0.0159 0.2454 0.0000 0.1679 0.0700 0.0299 0.0002
2.3423 78.1312 0.1550 0.0160 0.2399 0.0000 0.1699 0.0706 0.0290 0.0002
2.3524 78.4651 0.1469 0.0161 0.2347 0.0000 0.1717 0.0712 0.0281 0.0001
2.3624 78.7990 0.1397 0.0165 0.2303 0.0000 0.1734 0.0717 0.0273 0.0001
2.3724 79.1329 0.1326 0.0168 0.2258 0.0000 0.1751 0.0723 0.0264 0.0001
2.3824 79.4667 0.1254 0.0171 0.2214 0.0000 0.1768 0.0729 0.0256 0.0001
2.3924 79.8006 0.1183 0.0174 0.2169 0.0000 0.1785 0.0734 0.0248 0.0001
2.4024 80.1345 0.1115 0.0178 0.2127 0.0000 0.1801 0.0740 0.0240 0.0000
2.4124 80.4684 0.1056 0.0184 0.2091 0.0000 0.1815 0.0745 0.0233 0.0000
2.4224 80.8023 0.0998 0.0189 0.2056 0.0000 0.1829 0.0750 0.0226 0.0000
2.4324 81.1362 0.0939 0.0195 0.2020 0.0000 0.1843 0.0755 0.0219 0.0000
2.4424 81.4701 0.0880 0.0200 0.1984 0.0000 0.1857 0.0760 0.0212 0.0000
2.4525 81.8040 0.0825 0.0207 0.1951 0.0000 0.1870 0.0765 0.0206 0.0000
2.4625 82.1379 0.0778 0.0214 0.1923 0.0000 0.1880 0.0770 0.0200 0.0001
2.4725 82.4718 0.0731 0.0222 0.1895 0.0000 0.1891 0.0774 0.0194 0.0001
2.4825 82.8057 0.0684 0.0229 0.1867 0.0000 0.1902 0.0778 0.0188 0.0001
2.4925 83.1396 0.0638 0.0237 0.1838 0.0000 0.1912 0.0783 0.0182 0.0002
2.5025 83.4735 0.0594 0.0245 0.1812 0.0000 0.1922 0.0787 0.0177 0.0002
2.5125 83.8074 0.0557 0.0254 0.1790 0.0000 0.1929 0.0790 0.0172 0.0003
2.5225 84.1413 0.0521 0.0264 0.1768 0.0000 0.1936 0.0794 0.0167 0.0004
2.5325 84.4752 0.0485 0.0273 0.1746 0.0000 0.1943 0.0797 0.0162 0.0004
2.5425 84.8090 0.0448 0.0282 0.1724 0.0000 0.1951 0.0800 0.0158 0.0005
2.5526 85.1429 0.0414 0.0292 0.1704 0.0000 0.1957 0.0804 0.0153 0.0006
2.5626 85.4768 0.0387 0.0303 0.1687 0.0000 0.1960 0.0806 0.0149 0.0008
2.5726 85.8107 0.0360 0.0314 0.1669 0.0000 0.1964 0.0809 0.0145 0.0009
2.5826 86.1446 0.0332 0.0325 0.1652 0.0000 0.1967 0.0811 0.0141 0.0011
2.5926 86.4785 0.0305 0.0336 0.1635 0.0000 0.1970 0.0814 0.0138 0.0013
2.6026 86.8124 0.0280 0.0347 0.1618 0.0000 0.1973 0.0816 0.0134 0.0014
2.6126 87.1463 0.0260 0.0359 0.1604 0.0000 0.1973 0.0818 0.0131 0.0017
2.6226 87.4802 0.0240 0.0371 0.1590 0.0000 0.1972 0.0819 0.0127 0.0019
2.6326 87.8141 0.0220 0.0382 0.1576 0.0000 0.1972 0.0821 0.0124 0.0021
2.6426 88.1480 0.0200 0.0394 0.1562 0.0000 0.1972 0.0822 0.0121 0.0024
2.6527 88.4819 0.0182 0.0406 0.1549 0.0000 0.1971 0.0824 0.0118 0.0026
2.6627 88.8158 0.0168 0.0419 0.1537 0.0000 0.1967 0.0825 0.0116 0.0029
2.6727 89.1497 0.0154 0.0432 0.1525 0.0000 0.1963 0.0825 0.0113 0.0032
2.6827 89.4836 0.0140 0.0444 0.1513 0.0000 0.1959 0.0826 0.0111 0.0035
2.6927 89.8175 0.0126 0.0457 0.1500 0.0000 0.1956 0.0827 0.0108 0.0038
2.7027 90.1514 0.0113 0.0469 0.1489 0.0000 0.1951 0.0827 0.0106 0.0041
2.7127 90.4852 0.0103 0.0482 0.1477 0.0000 0.1944 0.0827 0.0104 0.0045
2.7227 90.8191 0.0094 0.0495 0.1466 0.0000 0.1937 0.0827 0.0102 0.0048
2.7327 91.1530 0.0084 0.0507 0.1455 0.0000 0.1929 0.0827 0.0100 0.0052
2.7427 91.4869 0.0075 0.0520 0.1444 0.0000 0.1922 0.0827 0.0098 0.0055
2.7528 91.8208 0.0066 0.0533 0.1432 0.0000 0.1914 0.0827 0.0096 0.0059
2.7628 92.1547 0.0060 0.0545 0.1421 0.0000 0.1904 0.0826 0.0094 0.0062
2.7728 92.4886 0.0054 0.0558 0.1410 0.0000 0.1894 0.0826 0.0093 0.0066
2.7828 92.8225 0.0048 0.0570 0.1399 0.0000 0.1883 0.0825 0.0091 0.0070
2.7928 93.1564 0.0042 0.0583 0.1387 0.0000 0.1873 0.0824 0.0089 0.0073
